TITLE	
DATA TYPE	
ORIGIN	JASCO
OWNER	
DATE	16/04/20
TIME	15:40:25
SPECTROMETER/DATA SYSTEM	JASCO Corp., J-810, Rev. 1.00
RESOLUTION	
DELTAX	-0.1
XUNITS	NANOMETERS
YUNITS	CD[mdeg]
Y2UNITS	HT[V]
FIRSTX	350.0000
LASTX	240.0000
NPOINTS	1101
FIRSTY	0.96063
MAXY	3.81547
MINY	-20.48859
XYDATA
350.0000	0.960635	309.784
349.9000	0.945191	309.739
349.8000	0.941553	309.696
349.7000	0.935848	309.652
349.6000	0.959891	309.613
349.5000	0.955369	309.576
349.4000	0.968325	309.545
349.3000	0.957383	309.505
349.2000	0.963429	309.462
349.1000	0.949056	309.424
349.0000	0.929089	309.381
348.9000	0.946291	309.346
348.8000	0.94681	309.307
348.7000	0.942222	309.259
348.6000	0.93666	309.224
348.5000	0.939714	309.188
348.4000	0.961009	309.155
348.3000	0.976227	309.12
348.2000	0.993935	309.074
348.1000	0.998613	309.035
348.0000	0.995469	308.988
347.9000	0.987778	308.949
347.8000	1.00497	308.903
347.7000	0.998499	308.851
347.6000	1.00275	308.81
347.5000	1.0028	308.765
347.4000	1.03035	308.719
347.3000	1.03545	308.678
347.2000	1.05097	308.629
347.1000	1.07064	308.593
347.0000	1.09302	308.544
346.9000	1.11766	308.493
346.8000	1.1008	308.453
346.7000	1.10759	308.408
346.6000	1.12259	308.362
346.5000	1.13313	308.323
346.4000	1.1458	308.276
346.3000	1.16394	308.233
346.2000	1.17427	308.189
346.1000	1.18884	308.15
346.0000	1.20155	308.107
345.9000	1.19327	308.059
345.8000	1.21664	308.011
345.7000	1.24647	307.968
345.6000	1.25793	307.927
345.5000	1.24202	307.882
345.4000	1.24932	307.837
345.3000	1.22196	307.808
345.2000	1.20015	307.767
345.1000	1.20789	307.711
345.0000	1.2082	307.66
344.9000	1.20933	307.612
344.8000	1.1981	307.558
344.7000	1.18014	307.512
344.6000	1.16742	307.464
344.5000	1.15662	307.413
344.4000	1.13826	307.354
344.3000	1.14607	307.298
344.2000	1.16409	307.246
344.1000	1.14271	307.199
344.0000	1.12719	307.144
343.9000	1.1485	307.085
343.8000	1.1803	307.034
343.7000	1.17752	306.974
343.6000	1.20342	306.913
343.5000	1.22566	306.86
343.4000	1.21959	306.809
343.3000	1.22945	306.758
343.2000	1.21951	306.712
343.1000	1.21212	306.669
343.0000	1.2377	306.613
342.9000	1.24831	306.567
342.8000	1.28094	306.519
342.7000	1.31452	306.471
342.6000	1.34142	306.427
342.5000	1.35149	306.383
342.4000	1.35594	306.33
342.3000	1.36349	306.283
342.2000	1.36295	306.235
342.1000	1.36303	306.179
342.0000	1.366	306.127
341.9000	1.35728	306.077
341.8000	1.35322	306.022
341.7000	1.35636	305.977
341.6000	1.36792	305.933
341.5000	1.37624	305.878
341.4000	1.37789	305.835
341.3000	1.34616	305.79
341.2000	1.32565	305.738
341.1000	1.31712	305.698
341.0000	1.29277	305.651
340.9000	1.26531	305.6
340.8000	1.27584	305.559
340.7000	1.28128	305.511
340.6000	1.25742	305.46
340.5000	1.24898	305.422
340.4000	1.25669	305.38
340.3000	1.24091	305.332
340.2000	1.24609	305.289
340.1000	1.256	305.246
340.0000	1.24312	305.194
339.9000	1.23777	305.153
339.8000	1.26526	305.098
339.7000	1.28406	305.042
339.6000	1.31208	304.989
339.5000	1.31605	304.937
339.4000	1.30625	304.887
339.3000	1.30826	304.843
339.2000	1.30915	304.794
339.1000	1.28578	304.737
339.0000	1.28533	304.69
338.9000	1.28548	304.646
338.8000	1.2832	304.594
338.7000	1.28454	304.547
338.6000	1.3147	304.511
338.5000	1.32023	304.462
338.4000	1.3259	304.415
338.3000	1.33601	304.367
338.2000	1.32957	304.322
338.1000	1.33354	304.281
338.0000	1.3549	304.235
337.9000	1.3684	304.194
337.8000	1.3925	304.15
337.7000	1.41926	304.104
337.6000	1.41948	304.061
337.5000	1.41818	304.024
337.4000	1.41951	303.979
337.3000	1.41158	303.932
337.2000	1.40456	303.887
337.1000	1.38865	303.843
337.0000	1.38287	303.795
336.9000	1.37492	303.747
336.8000	1.36151	303.704
336.7000	1.36067	303.662
336.6000	1.35797	303.619
336.5000	1.34434	303.572
336.4000	1.34013	303.53
336.3000	1.33125	303.488
336.2000	1.32853	303.442
336.1000	1.32218	303.397
336.0000	1.33086	303.35
335.9000	1.33462	303.299
335.8000	1.33333	303.256
335.7000	1.34239	303.214
335.6000	1.35233	303.175
335.5000	1.39197	303.133
335.4000	1.39722	303.09
335.3000	1.36976	303.041
335.2000	1.37484	302.995
335.1000	1.38232	302.949
335.0000	1.38132	302.906
334.9000	1.39966	302.861
334.8000	1.41905	302.816
334.7000	1.42543	302.775
334.6000	1.44613	302.735
334.5000	1.4467	302.698
334.4000	1.44697	302.654
334.3000	1.44717	302.612
334.2000	1.462	302.567
334.1000	1.49101	302.519
334.0000	1.50824	302.473
333.9000	1.52553	302.431
333.8000	1.49826	302.394
333.7000	1.50714	302.355
333.6000	1.52907	302.316
333.5000	1.53319	302.274
333.4000	1.54322	302.237
333.3000	1.55545	302.197
333.2000	1.54794	302.156
333.1000	1.52758	302.125
333.0000	1.52768	302.084
332.9000	1.50871	302.044
332.8000	1.48238	301.999
332.7000	1.45424	301.964
332.6000	1.45379	301.934
332.5000	1.4311	301.9
332.4000	1.42909	301.861
332.3000	1.42243	301.823
332.2000	1.41192	301.776
332.1000	1.40623	301.728
332.0000	1.4071	301.684
331.9000	1.39369	301.641
331.8000	1.36692	301.602
331.7000	1.33657	301.557
331.6000	1.34717	301.516
331.5000	1.34831	301.47
331.4000	1.34122	301.422
331.3000	1.35908	301.38
331.2000	1.38724	301.338
331.1000	1.41825	301.296
331.0000	1.41589	301.248
330.9000	1.41906	301.203
330.8000	1.39816	301.167
330.7000	1.38485	301.133
330.6000	1.38101	301.092
330.5000	1.398	301.056
330.4000	1.40492	301.027
330.3000	1.42691	300.997
330.2000	1.45403	300.963
330.1000	1.48874	300.919
330.0000	1.47839	300.889
329.9000	1.45631	300.861
329.8000	1.46941	300.825
329.7000	1.44339	300.792
329.6000	1.37329	300.759
329.5000	1.34322	300.73
329.4000	1.34547	300.694
329.3000	1.36935	300.662
329.2000	1.37947	300.621
329.1000	1.41836	300.579
329.0000	1.43932	300.548
328.9000	1.43923	300.519
328.8000	1.44129	300.483
328.7000	1.45714	300.444
328.6000	1.43614	300.402
328.5000	1.43716	300.375
328.4000	1.43708	300.344
328.3000	1.46747	300.299
328.2000	1.47692	300.257
328.1000	1.48512	300.217
328.0000	1.5098	300.183
327.9000	1.52775	300.143
327.8000	1.52712	300.106
327.7000	1.52489	300.078
327.6000	1.53412	300.041
327.5000	1.53722	300.004
327.4000	1.51759	299.967
327.3000	1.51009	299.927
327.2000	1.50501	299.889
327.1000	1.50689	299.853
327.0000	1.48045	299.824
326.9000	1.47913	299.789
326.8000	1.47861	299.751
326.7000	1.47731	299.717
326.6000	1.4741	299.686
326.5000	1.47178	299.653
326.4000	1.46022	299.62
326.3000	1.46573	299.587
326.2000	1.49757	299.555
326.1000	1.50345	299.52
326.0000	1.51406	299.484
325.9000	1.51435	299.454
325.8000	1.50117	299.419
325.7000	1.49842	299.384
325.6000	1.50634	299.348
325.5000	1.50431	299.31
325.4000	1.50078	299.271
325.3000	1.48929	299.228
325.2000	1.47729	299.187
325.1000	1.44566	299.144
325.0000	1.43307	299.104
324.9000	1.41464	299.06
324.8000	1.39052	299.017
324.7000	1.38469	298.977
324.6000	1.36439	298.93
324.5000	1.34068	298.885
324.4000	1.3354	298.836
324.3000	1.30077	298.792
324.2000	1.28856	298.753
324.1000	1.29936	298.713
324.0000	1.28569	298.663
323.9000	1.28431	298.614
323.8000	1.29855	298.563
323.7000	1.30321	298.515
323.6000	1.32893	298.472
323.5000	1.35371	298.425
323.4000	1.36942	298.378
323.3000	1.38102	298.337
323.2000	1.36605	298.298
323.1000	1.3678	298.252
323.0000	1.38944	298.207
322.9000	1.4022	298.163
322.8000	1.40301	298.133
322.7000	1.39269	298.099
322.6000	1.41333	298.067
322.5000	1.39808	298.031
322.4000	1.3824	297.998
322.3000	1.37242	297.967
322.2000	1.37309	297.939
322.1000	1.37881	297.911
322.0000	1.39993	297.889
321.9000	1.41394	297.864
321.8000	1.43687	297.843
321.7000	1.4426	297.816
321.6000	1.44354	297.794
321.5000	1.49419	297.773
321.4000	1.5137	297.754
321.3000	1.52321	297.743
321.2000	1.52734	297.727
321.1000	1.53717	297.699
321.0000	1.57254	297.681
320.9000	1.58188	297.654
320.8000	1.58419	297.637
320.7000	1.58394	297.622
320.6000	1.59752	297.603
320.5000	1.58824	297.586
320.4000	1.58035	297.562
320.3000	1.56341	297.539
320.2000	1.55225	297.518
320.1000	1.55431	297.492
320.0000	1.56292	297.474
319.9000	1.57253	297.453
319.8000	1.55563	297.433
319.7000	1.55414	297.414
319.6000	1.56146	297.386
319.5000	1.56667	297.365
319.4000	1.55131	297.339
319.3000	1.51493	297.311
319.2000	1.52146	297.288
319.1000	1.53178	297.261
319.0000	1.53566	297.234
318.9000	1.5383	297.216
318.8000	1.55657	297.192
318.7000	1.55686	297.167
318.6000	1.54232	297.141
318.5000	1.52951	297.118
318.4000	1.53557	297.101
318.3000	1.53518	297.078
318.2000	1.54433	297.055
318.1000	1.55912	297.029
318.0000	1.5688	297.005
317.9000	1.57473	296.981
317.8000	1.58132	296.964
317.7000	1.59981	296.945
317.6000	1.60512	296.922
317.5000	1.62801	296.899
317.4000	1.6587	296.876
317.3000	1.67229	296.851
317.2000	1.67362	296.823
317.1000	1.65739	296.8
317.0000	1.67284	296.776
316.9000	1.69254	296.752
316.8000	1.6678	296.725
316.7000	1.6409	296.696
316.6000	1.62492	296.668
316.5000	1.60933	296.641
316.4000	1.58767	296.619
316.3000	1.57234	296.598
316.2000	1.56466	296.581
316.1000	1.56515	296.562
316.0000	1.56894	296.546
315.9000	1.56412	296.531
315.8000	1.56661	296.514
315.7000	1.55446	296.493
315.6000	1.54988	296.474
315.5000	1.53189	296.462
315.4000	1.53376	296.444
315.3000	1.5318	296.422
315.2000	1.51692	296.406
315.1000	1.53142	296.392
315.0000	1.56275	296.379
314.9000	1.56657	296.363
314.8000	1.56456	296.347
314.7000	1.54999	296.324
314.6000	1.55499	296.296
314.5000	1.5561	296.268
314.4000	1.54534	296.24
314.3000	1.54048	296.208
314.2000	1.55216	296.178
314.1000	1.56624	296.151
314.0000	1.56805	296.128
313.9000	1.56832	296.109
313.8000	1.58936	296.085
313.7000	1.58123	296.069
313.6000	1.58423	296.048
313.5000	1.597	296.02
313.4000	1.61031	295.992
313.3000	1.60491	295.969
313.2000	1.60805	295.936
313.1000	1.63024	295.912
313.0000	1.66189	295.886
312.9000	1.64863	295.864
312.8000	1.64753	295.839
312.7000	1.64984	295.816
312.6000	1.6484	295.802
312.5000	1.62099	295.786
312.4000	1.58567	295.77
312.3000	1.58269	295.754
312.2000	1.57658	295.73
312.1000	1.54883	295.708
312.0000	1.5562	295.694
311.9000	1.56868	295.684
311.8000	1.56334	295.674
311.7000	1.54452	295.662
311.6000	1.53898	295.65
311.5000	1.53914	295.646
311.4000	1.5276	295.647
311.3000	1.51573	295.65
311.2000	1.53142	295.65
311.1000	1.55916	295.648
311.0000	1.57234	295.648
310.9000	1.58345	295.648
310.8000	1.58448	295.654
310.7000	1.58436	295.66
310.6000	1.58321	295.668
310.5000	1.58084	295.678
310.4000	1.58495	295.693
310.3000	1.54892	295.697
310.2000	1.52093	295.701
310.1000	1.51768	295.706
310.0000	1.52708	295.712
309.9000	1.5251	295.719
309.8000	1.52339	295.728
309.7000	1.51781	295.727
309.6000	1.51029	295.732
309.5000	1.4931	295.737
309.4000	1.47831	295.743
309.3000	1.47005	295.748
309.2000	1.47886	295.74
309.1000	1.48763	295.745
309.0000	1.50916	295.739
308.9000	1.52753	295.732
308.8000	1.5305	295.728
308.7000	1.55607	295.72
308.6000	1.57625	295.715
308.5000	1.57714	295.711
308.4000	1.58804	295.712
308.3000	1.61535	295.713
308.2000	1.63991	295.711
308.1000	1.63767	295.709
308.0000	1.64841	295.708
307.9000	1.63796	295.705
307.8000	1.66119	295.703
307.7000	1.6971	295.7
307.6000	1.70832	295.702
307.5000	1.72015	295.701
307.4000	1.73265	295.697
307.3000	1.74925	295.704
307.2000	1.76502	295.712
307.1000	1.76147	295.72
307.0000	1.74921	295.726
306.9000	1.76759	295.729
306.8000	1.78293	295.734
306.7000	1.78521	295.736
306.6000	1.76662	295.742
306.5000	1.76276	295.746
306.4000	1.76946	295.751
306.3000	1.7761	295.757
306.2000	1.78149	295.764
306.1000	1.75505	295.77
306.0000	1.73857	295.779
305.9000	1.73662	295.79
305.8000	1.72399	295.801
305.7000	1.73336	295.814
305.6000	1.73111	295.822
305.5000	1.74584	295.833
305.4000	1.7472	295.844
305.3000	1.7598	295.856
305.2000	1.75472	295.874
305.1000	1.76242	295.894
305.0000	1.76784	295.913
304.9000	1.78496	295.928
304.8000	1.80052	295.947
304.7000	1.81834	295.964
304.6000	1.81917	295.98
304.5000	1.81853	296.001
304.4000	1.82582	296.02
304.3000	1.83115	296.033
304.2000	1.83072	296.05
304.1000	1.83057	296.069
304.0000	1.82258	296.095
303.9000	1.8323	296.121
303.8000	1.84884	296.147
303.7000	1.87389	296.173
303.6000	1.86407	296.206
303.5000	1.8629	296.231
303.4000	1.85508	296.251
303.3000	1.83569	296.276
303.2000	1.81764	296.299
303.1000	1.81156	296.325
303.0000	1.79757	296.353
302.9000	1.81839	296.383
302.8000	1.82833	296.412
302.7000	1.82216	296.442
302.6000	1.83169	296.478
302.5000	1.81759	296.51
302.4000	1.79296	296.538
302.3000	1.74218	296.561
302.2000	1.70082	296.583
302.1000	1.67828	296.611
302.0000	1.70827	296.638
301.9000	1.7161	296.666
301.8000	1.71698	296.691
301.7000	1.73022	296.717
301.6000	1.7486	296.746
301.5000	1.74506	296.78
301.4000	1.73067	296.81
301.3000	1.73184	296.84
301.2000	1.72615	296.871
301.1000	1.73013	296.906
301.0000	1.71867	296.941
300.9000	1.69611	296.969
300.8000	1.71315	297.005
300.7000	1.73868	297.043
300.6000	1.77639	297.08
300.5000	1.8164	297.123
300.4000	1.84122	297.166
300.3000	1.84792	297.208
300.2000	1.84735	297.25
300.1000	1.84267	297.294
300.0000	1.83617	297.341
299.9000	1.83708	297.392
299.8000	1.83741	297.445
299.7000	1.84684	297.492
299.6000	1.82935	297.546
299.5000	1.82322	297.601
299.4000	1.81883	297.654
299.3000	1.82455	297.705
299.2000	1.83675	297.759
299.1000	1.84559	297.809
299.0000	1.85325	297.861
298.9000	1.84916	297.91
298.8000	1.82113	297.953
298.7000	1.79678	297.996
298.6000	1.79947	298.039
298.5000	1.82152	298.086
298.4000	1.82891	298.136
298.3000	1.82062	298.189
298.2000	1.809	298.233
298.1000	1.80509	298.28
298.0000	1.80084	298.336
297.9000	1.8075	298.375
297.8000	1.82686	298.42
297.7000	1.83371	298.466
297.6000	1.8233	298.515
297.5000	1.81062	298.559
297.4000	1.79934	298.608
297.3000	1.80699	298.654
297.2000	1.79492	298.704
297.1000	1.76888	298.758
297.0000	1.7405	298.81
296.9000	1.71557	298.869
296.8000	1.69965	298.928
296.7000	1.68127	298.991
296.6000	1.69759	299.043
296.5000	1.73428	299.097
296.4000	1.74319	299.154
296.3000	1.75691	299.214
296.2000	1.76703	299.273
296.1000	1.74641	299.333
296.0000	1.75807	299.395
295.9000	1.78533	299.464
295.8000	1.78899	299.536
295.7000	1.80226	299.6
295.6000	1.80135	299.669
295.5000	1.82383	299.734
295.4000	1.84172	299.803
295.3000	1.85735	299.867
295.2000	1.85187	299.934
295.1000	1.86802	299.998
295.0000	1.87808	300.06
294.9000	1.86417	300.126
294.8000	1.85964	300.199
294.7000	1.84931	300.267
294.6000	1.83869	300.335
294.5000	1.83622	300.413
294.4000	1.86633	300.486
294.3000	1.86835	300.556
294.2000	1.90075	300.628
294.1000	1.91903	300.708
294.0000	1.90543	300.793
293.9000	1.88518	300.878
293.8000	1.86264	300.961
293.7000	1.86226	301.046
293.6000	1.86812	301.136
293.5000	1.887	301.219
293.4000	1.89063	301.306
293.3000	1.8662	301.394
293.2000	1.85131	301.493
293.1000	1.84646	301.582
293.0000	1.84717	301.672
292.9000	1.83442	301.762
292.8000	1.80267	301.85
292.7000	1.77569	301.944
292.6000	1.75921	302.031
292.5000	1.73112	302.127
292.4000	1.73145	302.218
292.3000	1.73444	302.307
292.2000	1.75866	302.388
292.1000	1.76077	302.469
292.0000	1.75426	302.548
291.9000	1.74427	302.627
291.8000	1.71756	302.705
291.7000	1.72609	302.78
291.6000	1.74584	302.856
291.5000	1.74521	302.923
291.4000	1.7216	302.994
291.3000	1.70987	303.063
291.2000	1.70589	303.136
291.1000	1.71131	303.211
291.0000	1.69	303.278
290.9000	1.67861	303.352
290.8000	1.66265	303.408
290.7000	1.63673	303.47
290.6000	1.63331	303.538
290.5000	1.62931	303.614
290.4000	1.65898	303.69
290.3000	1.65638	303.768
290.2000	1.67598	303.849
290.1000	1.68622	303.933
290.0000	1.69035	304.012
289.9000	1.69414	304.095
289.8000	1.72816	304.175
289.7000	1.73113	304.253
289.6000	1.74679	304.338
289.5000	1.78979	304.413
289.4000	1.8154	304.491
289.3000	1.83684	304.575
289.2000	1.86309	304.652
289.1000	1.91415	304.742
289.0000	1.94837	304.818
288.9000	1.95874	304.9
288.8000	1.9716	304.972
288.7000	1.97126	305.051
288.6000	1.98436	305.12
288.5000	1.99085	305.188
288.4000	1.99933	305.26
288.3000	1.99216	305.333
288.2000	1.9769	305.396
288.1000	1.96629	305.458
288.0000	1.98039	305.525
287.9000	1.98122	305.591
287.8000	1.97106	305.661
287.7000	1.97381	305.724
287.6000	1.97031	305.789
287.5000	1.94375	305.847
287.4000	1.93229	305.907
287.3000	1.95421	305.97
287.2000	1.95195	306.036
287.1000	1.963	306.106
287.0000	1.97402	306.17
286.9000	1.98943	306.243
286.8000	1.99388	306.312
286.7000	2.01523	306.373
286.6000	2.06146	306.451
286.5000	2.08783	306.536
286.4000	2.13332	306.617
286.3000	2.13855	306.697
286.2000	2.14406	306.778
286.1000	2.14073	306.853
286.0000	2.14421	306.932
285.9000	2.1373	307.015
285.8000	2.13099	307.108
285.7000	2.11965	307.199
285.6000	2.11391	307.29
285.5000	2.11171	307.372
285.4000	2.0861	307.459
285.3000	2.05456	307.55
285.2000	2.04425	307.639
285.1000	2.04382	307.733
285.0000	2.02966	307.821
284.9000	2.02633	307.909
284.8000	2.03059	308
284.7000	2.02578	308.088
284.6000	2.02905	308.173
284.5000	2.0224	308.258
284.4000	2.02067	308.35
284.3000	2.03472	308.439
284.2000	2.06191	308.518
284.1000	2.07891	308.597
284.0000	2.07523	308.674
283.9000	2.07795	308.755
283.8000	2.091	308.831
283.7000	2.12229	308.908
283.6000	2.15726	308.984
283.5000	2.16624	309.064
283.4000	2.1531	309.14
283.3000	2.12998	309.22
283.2000	2.116	309.289
283.1000	2.10896	309.358
283.0000	2.10677	309.423
282.9000	2.11113	309.491
282.8000	2.11215	309.56
282.7000	2.10602	309.628
282.6000	2.11136	309.681
282.5000	2.07904	309.751
282.4000	2.06936	309.824
282.3000	2.07819	309.893
282.2000	2.06304	309.951
282.1000	2.04923	310.01
282.0000	2.02371	310.057
281.9000	2.01358	310.101
281.8000	2.03583	310.152
281.7000	2.10321	310.203
281.6000	2.13744	310.251
281.5000	2.15804	310.299
281.4000	2.18397	310.349
281.3000	2.18355	310.398
281.2000	2.18788	310.446
281.1000	2.19917	310.49
281.0000	2.22545	310.545
280.9000	2.23625	310.593
280.8000	2.24241	310.633
280.7000	2.23176	310.674
280.6000	2.22738	310.711
280.5000	2.24578	310.756
280.4000	2.27438	310.807
280.3000	2.29266	310.857
280.2000	2.29807	310.908
280.1000	2.23951	310.955
280.0000	2.17579	310.998
279.9000	2.12342	311.043
279.8000	2.11014	311.079
279.7000	2.10955	311.126
279.6000	2.12393	311.164
279.5000	2.12434	311.206
279.4000	2.12125	311.239
279.3000	2.10019	311.266
279.2000	2.12449	311.307
279.1000	2.17134	311.339
279.0000	2.18693	311.374
278.9000	2.1906	311.419
278.8000	2.19329	311.457
278.7000	2.20176	311.506
278.6000	2.19517	311.556
278.5000	2.20976	311.597
278.4000	2.25959	311.638
278.3000	2.32685	311.682
278.2000	2.39222	311.723
278.1000	2.40632	311.773
278.0000	2.40607	311.825
277.9000	2.40528	311.878
277.8000	2.4342	311.926
277.7000	2.45149	311.977
277.6000	2.46489	312.026
277.5000	2.46406	312.081
277.4000	2.47399	312.127
277.3000	2.48326	312.184
277.2000	2.49775	312.234
277.1000	2.50118	312.287
277.0000	2.51543	312.335
276.9000	2.53527	312.387
276.8000	2.55031	312.439
276.7000	2.56606	312.485
276.6000	2.5598	312.536
276.5000	2.5429	312.591
276.4000	2.5446	312.64
276.3000	2.56445	312.689
276.2000	2.60606	312.734
276.1000	2.6203	312.776
276.0000	2.66063	312.824
275.9000	2.69649	312.877
275.8000	2.68963	312.93
275.7000	2.72064	312.983
275.6000	2.73696	313.035
275.5000	2.76426	313.083
275.4000	2.79753	313.13
275.3000	2.83489	313.17
275.2000	2.84939	313.207
275.1000	2.855	313.255
275.0000	2.85678	313.305
274.9000	2.8661	313.354
274.8000	2.89384	313.399
274.7000	2.90925	313.451
274.6000	2.89958	313.5
274.5000	2.90785	313.551
274.4000	2.91761	313.6
274.3000	2.90275	313.642
274.2000	2.89329	313.675
274.1000	2.89616	313.718
274.0000	2.86164	313.77
273.9000	2.84729	313.817
273.8000	2.83922	313.86
273.7000	2.82622	313.897
273.6000	2.82642	313.941
273.5000	2.82903	313.987
273.4000	2.83642	314.025
273.3000	2.85538	314.055
273.2000	2.85522	314.088
273.1000	2.88111	314.123
273.0000	2.90611	314.149
272.9000	2.92407	314.179
272.8000	2.90447	314.213
272.7000	2.90976	314.258
272.6000	2.94508	314.316
272.5000	2.96607	314.357
272.4000	2.98586	314.403
272.3000	3.01938	314.429
272.2000	3.04319	314.47
272.1000	3.039	314.517
272.0000	3.04312	314.564
271.9000	3.03398	314.61
271.8000	3.03842	314.649
271.7000	3.01844	314.697
271.6000	2.99834	314.763
271.5000	2.9943	314.813
271.4000	2.98277	314.857
271.3000	2.98935	314.902
271.2000	3.0002	314.953
271.1000	3.02152	315.004
271.0000	3.02824	315.043
270.9000	3.03366	315.081
270.8000	3.01563	315.122
270.7000	3.01597	315.168
270.6000	3.0219	315.229
270.5000	3.01678	315.295
270.4000	3.03498	315.349
270.3000	3.05477	315.415
270.2000	3.05975	315.475
270.1000	3.08062	315.541
270.0000	3.11733	315.61
269.9000	3.14589	315.669
269.8000	3.16166	315.737
269.7000	3.16772	315.806
269.6000	3.16936	315.874
269.5000	3.13968	315.935
269.4000	3.11412	315.999
269.3000	3.07027	316.069
269.2000	3.07092	316.141
269.1000	3.093	316.218
269.0000	3.10374	316.289
268.9000	3.11617	316.358
268.8000	3.11665	316.415
268.7000	3.10539	316.475
268.6000	3.11755	316.532
268.5000	3.11803	316.598
268.4000	3.12407	316.662
268.3000	3.11336	316.712
268.2000	3.08758	316.762
268.1000	3.10823	316.818
268.0000	3.12172	316.874
267.9000	3.13465	316.943
267.8000	3.19081	317.015
267.7000	3.22965	317.084
267.6000	3.25335	317.154
267.5000	3.25697	317.227
267.4000	3.26473	317.296
267.3000	3.25915	317.357
267.2000	3.27738	317.427
267.1000	3.30227	317.479
267.0000	3.30374	317.544
266.9000	3.32906	317.613
266.8000	3.34212	317.68
266.7000	3.35165	317.74
266.6000	3.38847	317.806
266.5000	3.43099	317.859
266.4000	3.44065	317.925
266.3000	3.46373	317.988
266.2000	3.48188	318.044
266.1000	3.49734	318.101
266.0000	3.53379	318.153
265.9000	3.55451	318.196
265.8000	3.56856	318.243
265.7000	3.57196	318.305
265.6000	3.6098	318.361
265.5000	3.62596	318.4
265.4000	3.6521	318.479
265.3000	3.65786	318.549
265.2000	3.66993	318.614
265.1000	3.71104	318.688
265.0000	3.70466	318.77
264.9000	3.72565	318.858
264.8000	3.70254	318.961
264.7000	3.69616	319.039
264.6000	3.66263	319.111
264.5000	3.64627	319.19
264.4000	3.63343	319.274
264.3000	3.625	319.361
264.2000	3.6076	319.451
264.1000	3.60678	319.524
264.0000	3.59633	319.6
263.9000	3.58626	319.677
263.8000	3.57623	319.76
263.7000	3.54234	319.823
263.6000	3.49664	319.884
263.5000	3.4412	319.945
263.4000	3.39076	319.999
263.3000	3.39712	320.05
263.2000	3.37028	320.096
263.1000	3.36754	320.158
263.0000	3.38028	320.226
262.9000	3.39874	320.312
262.8000	3.41097	320.389
262.7000	3.40437	320.475
262.6000	3.41284	320.545
262.5000	3.42628	320.631
262.4000	3.45535	320.711
262.3000	3.43322	320.785
262.2000	3.38302	320.85
262.1000	3.34414	320.912
262.0000	3.33442	320.988
261.9000	3.34153	321.058
261.8000	3.3462	321.146
261.7000	3.35753	321.218
261.6000	3.34224	321.286
261.5000	3.35294	321.353
261.4000	3.36646	321.439
261.3000	3.37471	321.522
261.2000	3.38536	321.577
261.1000	3.37612	321.63
261.0000	3.40038	321.694
260.9000	3.41888	321.784
260.8000	3.40616	321.849
260.7000	3.41607	321.925
260.6000	3.46484	322.007
260.5000	3.53095	322.092
260.4000	3.5772	322.191
260.3000	3.61343	322.274
260.2000	3.66148	322.365
260.1000	3.71779	322.454
260.0000	3.76099	322.562
259.9000	3.78486	322.671
259.8000	3.80534	322.772
259.7000	3.81547	322.857
259.6000	3.7919	322.959
259.5000	3.77925	323.084
259.4000	3.77806	323.178
259.3000	3.73782	323.266
259.2000	3.68571	323.349
259.1000	3.65147	323.445
259.0000	3.65668	323.523
258.9000	3.6483	323.614
258.8000	3.65522	323.705
258.7000	3.68815	323.783
258.6000	3.70751	323.866
258.5000	3.69428	323.939
258.4000	3.66561	324.011
258.3000	3.63006	324.079
258.2000	3.6231	324.151
258.1000	3.62861	324.214
258.0000	3.6412	324.268
257.9000	3.69196	324.321
257.8000	3.69305	324.388
257.7000	3.67892	324.457
257.6000	3.70264	324.511
257.5000	3.71928	324.567
257.4000	3.67748	324.629
257.3000	3.6475	324.688
257.2000	3.6277	324.75
257.1000	3.60478	324.827
257.0000	3.6061	324.915
256.9000	3.59557	324.986
256.8000	3.60621	325.051
256.7000	3.61683	325.105
256.6000	3.63225	325.153
256.5000	3.61858	325.215
256.4000	3.60312	325.288
256.3000	3.55632	325.35
256.2000	3.50471	325.408
256.1000	3.51401	325.465
256.0000	3.49248	325.536
255.9000	3.48344	325.622
255.8000	3.5196	325.69
255.7000	3.53324	325.756
255.6000	3.56137	325.829
255.5000	3.60239	325.9
255.4000	3.62163	325.946
255.3000	3.61509	325.999
255.2000	3.59527	326.078
255.1000	3.54222	326.18
255.0000	3.50322	326.273
254.9000	3.50182	326.354
254.8000	3.50427	326.44
254.7000	3.50498	326.525
254.6000	3.51818	326.63
254.5000	3.52439	326.717
254.4000	3.52525	326.797
254.3000	3.54603	326.86
254.2000	3.54789	326.919
254.1000	3.5508	326.993
254.0000	3.56042	327.074
253.9000	3.56532	327.16
253.8000	3.56211	327.247
253.7000	3.55726	327.35
253.6000	3.57932	327.421
253.5000	3.60372	327.477
253.4000	3.64169	327.544
253.3000	3.6364	327.646
253.2000	3.61617	327.749
253.1000	3.58214	327.835
253.0000	3.57183	327.928
252.9000	3.57396	328.001
252.8000	3.59112	328.086
252.7000	3.59996	328.178
252.6000	3.61767	328.283
252.5000	3.62365	328.379
252.4000	3.61294	328.454
252.3000	3.5891	328.549
252.2000	3.51244	328.642
252.1000	3.44836	328.736
252.0000	3.39981	328.821
251.9000	3.35136	328.915
251.8000	3.32778	329.006
251.7000	3.31852	329.087
251.6000	3.30867	329.157
251.5000	3.29656	329.221
251.4000	3.30652	329.283
251.3000	3.31117	329.342
251.2000	3.30437	329.438
251.1000	3.27617	329.533
251.0000	3.24342	329.617
250.9000	3.17961	329.696
250.8000	3.12058	329.769
250.7000	3.11557	329.851
250.6000	3.11506	329.921
250.5000	3.12906	329.993
250.4000	3.12829	330.063
250.3000	3.12414	330.132
250.2000	3.10919	330.211
250.1000	3.09743	330.29
250.0000	3.0782	330.36
249.9000	3.10488	330.44
249.8000	3.08235	330.531
249.7000	3.04307	330.627
249.6000	2.98542	330.705
249.5000	2.90299	330.782
249.4000	2.84146	330.869
249.3000	2.79657	330.951
249.2000	2.80437	331.051
249.1000	2.79995	331.166
249.0000	2.77778	331.278
248.9000	2.71628	331.388
248.8000	2.64507	331.494
248.7000	2.60235	331.589
248.6000	2.55909	331.708
248.5000	2.51443	331.834
248.4000	2.46495	331.954
248.3000	2.37733	332.081
248.2000	2.29684	332.205
248.1000	2.23785	332.328
248.0000	2.1721	332.451
247.9000	2.09999	332.576
247.8000	2.0144	332.683
247.7000	1.95747	332.798
247.6000	1.87691	332.933
247.5000	1.7495	333.056
247.4000	1.63541	333.177
247.3000	1.53154	333.29
247.2000	1.4538	333.426
247.1000	1.34536	333.586
247.0000	1.24291	333.745
246.9000	1.12989	333.881
246.8000	0.994509	334.025
246.7000	0.860314	334.173
246.6000	0.759726	334.336
246.5000	0.65358	334.512
246.4000	0.530931	334.691
246.3000	0.396169	334.87
246.2000	0.277449	335.04
246.1000	0.169029	335.221
246.0000	0.0292155	335.385
245.9000	-0.0979731	335.555
245.8000	-0.271777	335.743
245.7000	-0.457157	335.93
245.6000	-0.649733	336.103
245.5000	-0.853934	336.263
245.4000	-1.05818	336.431
245.3000	-1.25647	336.604
245.2000	-1.45183	336.778
245.1000	-1.62641	336.945
245.0000	-1.82095	337.136
244.9000	-2.03299	337.298
244.8000	-2.22352	337.455
244.7000	-2.38478	337.628
244.6000	-2.56109	337.816
244.5000	-2.74329	337.998
244.4000	-2.94057	338.204
244.3000	-3.14864	338.41
244.2000	-3.32676	338.598
244.1000	-3.48544	338.791
244.0000	-3.67311	339.004
243.9000	-3.86202	339.221
243.8000	-4.0262	339.444
243.7000	-4.24744	339.662
243.6000	-4.51751	339.896
243.5000	-4.78484	340.163
243.4000	-5.05245	340.421
243.3000	-5.30927	340.657
243.2000	-5.61018	340.914
243.1000	-5.95699	341.167
243.0000	-6.29586	341.425
242.9000	-6.6558	341.674
242.8000	-7.00641	341.938
242.7000	-7.37401	342.192
242.6000	-7.743	342.454
242.5000	-8.13803	342.728
242.4000	-8.53252	343.011
242.3000	-8.92001	343.296
242.2000	-9.34751	343.573
242.1000	-9.77402	343.86
242.0000	-10.1979	344.155
241.9000	-10.6092	344.442
241.8000	-11.0565	344.72
241.7000	-11.484	345.023
241.6000	-11.9154	345.359
241.5000	-12.3615	345.673
241.4000	-12.8317	345.979
241.3000	-13.3086	346.31
241.2000	-13.8196	346.662
241.1000	-14.2951	347.012
241.0000	-14.7882	347.375
240.9000	-15.2916	347.755
240.8000	-15.8324	348.136
240.7000	-16.3851	348.513
240.6000	-16.9325	348.903
240.5000	-17.4524	349.306
240.4000	-17.9825	349.699
240.3000	-18.5596	350.1
240.2000	-19.1923	350.519
240.1000	-19.8261	350.938
240.0000	-20.4886	351.353
