TITLE	
DATA TYPE	
ORIGIN	JASCO
OWNER	
DATE	16/04/28
TIME	15:07:22
SPECTROMETER/DATA SYSTEM	JASCO Corp., J-810, Rev. 1.00
RESOLUTION	
DELTAX	-0.2
XUNITS	NANOMETERS
YUNITS	CD[mdeg]
Y2UNITS	HT[V]
Y3UNITS	External[V]
FIRSTX	350.0000
LASTX	240.0000
NPOINTS	551
FIRSTY	1.31575
MAXY	1.70566
MINY	0.86089
XYDATA
350.0000	1.31575	279.989	-0.00056485
349.8000	1.28424	280.003	-0.000565648
349.6000	1.24996	280.01	-0.000563955
349.4000	1.24527	280.019	-0.000563695
349.2000	1.25273	280.027	-0.000563309
349.0000	1.24922	280.038	-0.000561656
348.8000	1.2442	280.04	-0.000559814
348.6000	1.26081	280.043	-0.000559703
348.4000	1.21294	280.048	-0.000559911
348.2000	1.2159	280.04	-0.000560567
348.0000	1.22096	280.05	-0.000560211
347.8000	1.22564	280.062	-0.000557592
347.6000	1.19106	280.071	-0.000555283
347.4000	1.16678	280.068	-0.000555089
347.2000	1.18584	280.071	-0.000556498
347.0000	1.13926	280.076	-0.00055688
346.8000	1.1476	280.07	-0.000556427
346.6000	1.17036	280.067	-0.000556574
346.4000	1.15611	280.059	-0.000555608
346.2000	1.13289	280.056	-0.000558044
346.0000	1.14663	280.033	-0.000561595
345.8000	1.18072	280.008	-0.000565684
345.6000	1.1763	279.991	-0.000566655
345.4000	1.22625	279.978	-0.000568003
345.2000	1.25112	279.974	-0.000566544
345.0000	1.20326	279.957	-0.000568069
344.8000	1.20905	279.947	-0.000570811
344.6000	1.22866	279.92	-0.000571726
344.4000	1.215	279.907	-0.00057283
344.2000	1.19783	279.9	-0.000571904
344.0000	1.22632	279.897	-0.000576121
343.8000	1.2405	279.888	-0.000573837
343.6000	1.22953	279.871	-0.000577235
343.4000	1.25222	279.857	-0.000580343
343.2000	1.2516	279.83	-0.000580317
343.0000	1.24334	279.814	-0.000584971
342.8000	1.23026	279.794	-0.000587962
342.6000	1.20939	279.771	-0.000593043
342.4000	1.18775	279.748	-0.000593267
342.2000	1.17647	279.732	-0.000597936
342.0000	1.15593	279.715	-0.000599874
341.8000	1.16465	279.693	-0.000603424
341.6000	1.19454	279.685	-0.000604513
341.4000	1.20519	279.67	-0.000606928
341.2000	1.22607	279.649	-0.000607402
341.0000	1.25652	279.633	-0.000608154
340.8000	1.26071	279.623	-0.000608398
340.6000	1.25503	279.603	-0.000610748
340.4000	1.25765	279.586	-0.000612818
340.2000	1.28257	279.566	-0.000615346
340.0000	1.28079	279.535	-0.000617956
339.8000	1.27699	279.517	-0.000619456
339.6000	1.24029	279.503	-0.000622045
339.4000	1.23949	279.494	-0.000622421
339.2000	1.24169	279.484	-0.000623861
339.0000	1.25033	279.47	-0.000624135
338.8000	1.27765	279.457	-0.000625092
338.6000	1.28585	279.457	-0.00062619
338.4000	1.28945	279.444	-0.00062645
338.2000	1.30199	279.438	-0.000627385
338.0000	1.28755	279.423	-0.000628667
337.8000	1.3189	279.405	-0.000631373
337.6000	1.35231	279.379	-0.000633535
337.4000	1.3116	279.356	-0.000636419
337.2000	1.27339	279.336	-0.000639745
337.0000	1.25438	279.312	-0.000643097
336.8000	1.24759	279.304	-0.000644394
336.6000	1.20131	279.291	-0.000644913
336.4000	1.22175	279.283	-0.000645035
336.2000	1.17303	279.27	-0.00064857
336.0000	1.13408	279.272	-0.000649434
335.8000	1.14962	279.267	-0.000651082
335.6000	1.19382	279.258	-0.000648997
335.4000	1.21905	279.241	-0.000650655
335.2000	1.2163	279.227	-0.000651321
335.0000	1.24769	279.214	-0.000654978
334.8000	1.25884	279.208	-0.000653961
334.6000	1.27967	279.211	-0.000653371
334.4000	1.31612	279.207	-0.000654592
334.2000	1.30717	279.204	-0.000656194
334.0000	1.31219	279.194	-0.000654861
333.8000	1.3133	279.191	-0.000654592
333.6000	1.25752	279.184	-0.000656194
333.4000	1.24672	279.186	-0.000655823
333.2000	1.23911	279.169	-0.000657791
333.0000	1.22037	279.155	-0.000657349
332.8000	1.18013	279.131	-0.000662109
332.6000	1.16342	279.125	-0.000662557
332.4000	1.13039	279.125	-0.000663269
332.2000	1.09709	279.135	-0.000663722
332.0000	1.14159	279.146	-0.000662465
331.8000	1.15024	279.142	-0.000661611
331.6000	1.12858	279.145	-0.000662674
331.4000	1.15487	279.152	-0.000660629
331.2000	1.15325	279.169	-0.000660339
331.0000	1.14606	279.168	-0.000660004
330.8000	1.19391	279.171	-0.000658976
330.6000	1.23025	279.154	-0.000661438
330.4000	1.22783	279.147	-0.000661336
330.2000	1.24549	279.141	-0.000661565
330.0000	1.26156	279.135	-0.000663091
329.8000	1.25019	279.13	-0.00066272
329.6000	1.26564	279.105	-0.000665441
329.4000	1.26989	279.095	-0.000665543
329.2000	1.27422	279.087	-0.000667903
329.0000	1.28009	279.08	-0.00066746
328.8000	1.2747	279.066	-0.00066832
328.6000	1.24981	279.062	-0.000668925
328.4000	1.24646	279.06	-0.000669428
328.2000	1.27736	279.055	-0.000669785
328.0000	1.26923	279.057	-0.000669154
327.8000	1.27429	279.056	-0.00066923
327.6000	1.26681	279.052	-0.000668976
327.4000	1.25397	279.06	-0.000667664
327.2000	1.25148	279.065	-0.000666499
327.0000	1.25119	279.057	-0.000667796
326.8000	1.25424	279.055	-0.000669159
326.6000	1.23326	279.056	-0.000670232
326.4000	1.24263	279.058	-0.000670542
326.2000	1.24022	279.062	-0.000671031
326.0000	1.25682	279.061	-0.000671789
325.8000	1.25774	279.059	-0.000670456
325.6000	1.23053	279.045	-0.00067218
325.4000	1.22645	279.032	-0.000674164
325.2000	1.21577	279.017	-0.000676086
325.0000	1.19562	278.995	-0.000677872
324.8000	1.16518	278.984	-0.000681051
324.6000	1.14906	278.948	-0.00068369
324.4000	1.15097	278.917	-0.000687607
324.2000	1.12552	278.893	-0.000691554
324.0000	1.11075	278.858	-0.000696966
323.8000	1.12832	278.829	-0.000699244
323.6000	1.14437	278.804	-0.000700882
323.4000	1.18428	278.778	-0.00070372
323.2000	1.21704	278.742	-0.000707967
323.0000	1.21934	278.71	-0.000710419
322.8000	1.26035	278.691	-0.000712423
322.6000	1.31402	278.673	-0.000712321
322.4000	1.37782	278.649	-0.00071579
322.2000	1.38759	278.628	-0.000718028
322.0000	1.38585	278.613	-0.000719437
321.8000	1.38003	278.601	-0.000720403
321.6000	1.3776	278.589	-0.000720698
321.4000	1.41192	278.582	-0.000720876
321.2000	1.38265	278.573	-0.000721649
321.0000	1.34591	278.573	-0.000723348
320.8000	1.35074	278.593	-0.000719523
320.6000	1.36534	278.614	-0.000717748
320.4000	1.3904	278.638	-0.000714625
320.2000	1.39064	278.65	-0.000713135
320.0000	1.34753	278.665	-0.000712504
319.8000	1.33792	278.688	-0.000710464
319.6000	1.35628	278.707	-0.000707957
319.4000	1.36214	278.72	-0.000704478
319.2000	1.31354	278.709	-0.000706426
319.0000	1.2909	278.706	-0.000706614
318.8000	1.29095	278.7	-0.00071021
318.6000	1.28867	278.699	-0.000708781
318.4000	1.2934	278.706	-0.000708867
318.2000	1.31563	278.701	-0.000710627
318.0000	1.30701	278.701	-0.000710236
317.8000	1.31987	278.697	-0.000711777
317.6000	1.36303	278.7	-0.000710759
317.4000	1.35104	278.701	-0.000711299
317.2000	1.33534	278.691	-0.000711965
317.0000	1.3126	278.685	-0.000712519
316.8000	1.319	278.671	-0.000713888
316.6000	1.32342	278.655	-0.000715759
316.4000	1.31582	278.645	-0.000718028
316.2000	1.34582	278.647	-0.000715347
316.0000	1.35094	278.649	-0.000713877
315.8000	1.35623	278.645	-0.000714279
315.6000	1.34189	278.651	-0.000714696
315.4000	1.34956	278.65	-0.000713496
315.2000	1.36055	278.649	-0.000714116
315.0000	1.34981	278.649	-0.000714177
314.8000	1.35255	278.652	-0.000714122
314.6000	1.31393	278.63	-0.000716894
314.4000	1.24831	278.605	-0.00072053
314.2000	1.23831	278.576	-0.000725464
314.0000	1.25495	278.556	-0.000727895
313.8000	1.24678	278.536	-0.000729808
313.6000	1.23778	278.516	-0.000730576
313.4000	1.24828	278.499	-0.000732203
313.2000	1.25604	278.477	-0.000735804
313.0000	1.2931	278.466	-0.000736313
312.8000	1.36004	278.447	-0.000737198
312.6000	1.38583	278.445	-0.000736989
312.4000	1.41868	278.436	-0.000738368
312.2000	1.422	278.427	-0.000738627
312.0000	1.43851	278.424	-0.000738342
311.8000	1.44052	278.408	-0.000742096
311.6000	1.42167	278.404	-0.000742472
311.4000	1.39786	278.405	-0.000742325
311.2000	1.34992	278.421	-0.00074085
311.0000	1.31839	278.439	-0.000739492
310.8000	1.26814	278.465	-0.000736369
310.6000	1.28848	278.49	-0.000733454
310.4000	1.32583	278.521	-0.000729553
310.2000	1.32404	278.55	-0.000724904
310.0000	1.34487	278.574	-0.000721731
309.8000	1.35833	278.595	-0.000718704
309.6000	1.3471	278.616	-0.000716339
309.4000	1.36812	278.618	-0.000716848
309.2000	1.38462	278.621	-0.000715505
309.0000	1.38049	278.628	-0.000714874
308.8000	1.35194	278.628	-0.000716207
308.6000	1.32672	278.639	-0.000716771
308.4000	1.31729	278.653	-0.000714961
308.2000	1.32068	278.662	-0.00071316
308.0000	1.36266	278.67	-0.000713018
307.8000	1.38032	278.683	-0.000710495
307.6000	1.37031	278.694	-0.000709544
307.4000	1.32573	278.708	-0.00070814
307.2000	1.32	278.715	-0.000707326
307.0000	1.31968	278.722	-0.000704931
306.8000	1.28199	278.72	-0.000706482
306.6000	1.25215	278.724	-0.000707143
306.4000	1.24648	278.733	-0.000705948
306.2000	1.25611	278.745	-0.000704397
306.0000	1.26779	278.748	-0.000704356
305.8000	1.34064	278.756	-0.000703049
305.6000	1.38161	278.773	-0.000700765
305.4000	1.38797	278.785	-0.000699102
305.2000	1.40721	278.806	-0.000695913
305.0000	1.45013	278.832	-0.000692718
304.8000	1.48203	278.837	-0.000691294
304.6000	1.46569	278.838	-0.000690694
304.4000	1.46211	278.853	-0.000689596
304.2000	1.45929	278.871	-0.000688187
304.0000	1.45733	278.887	-0.000686106
303.8000	1.47953	278.903	-0.000682994
303.6000	1.49677	278.922	-0.00068133
303.4000	1.5141	278.943	-0.000679474
303.2000	1.48946	278.96	-0.00067598
303.0000	1.49992	278.982	-0.000673798
302.8000	1.47551	279.008	-0.000671438
302.6000	1.4853	279.024	-0.000670319
302.4000	1.46692	279.037	-0.000668996
302.2000	1.43917	279.059	-0.000666601
302.0000	1.44417	279.073	-0.000666209
301.8000	1.42217	279.091	-0.000664652
301.6000	1.43314	279.098	-0.000663813
301.4000	1.41581	279.113	-0.000664571
301.2000	1.40996	279.126	-0.000661499
301.0000	1.42294	279.145	-0.000658824
300.8000	1.44213	279.156	-0.000657181
300.6000	1.4551	279.177	-0.000654343
300.4000	1.46624	279.196	-0.000652761
300.2000	1.49684	279.222	-0.000648336
300.0000	1.47348	279.249	-0.000647166
299.8000	1.48493	279.282	-0.000642314
299.6000	1.52301	279.318	-0.000638733
299.4000	1.5053	279.345	-0.000635615
299.2000	1.50223	279.369	-0.000632228
299.0000	1.52076	279.385	-0.00063004
298.8000	1.535	279.393	-0.000629237
298.6000	1.52079	279.414	-0.000627594
298.4000	1.52695	279.429	-0.000625697
298.2000	1.52793	279.454	-0.000623052
298.0000	1.50958	279.486	-0.000620448
297.8000	1.50028	279.515	-0.000616272
297.6000	1.52062	279.535	-0.000614004
297.4000	1.49669	279.565	-0.000610016
297.2000	1.47914	279.591	-0.000607513
297.0000	1.46472	279.616	-0.000604919
296.8000	1.46781	279.639	-0.000600733
296.6000	1.47357	279.657	-0.000598414
296.4000	1.47506	279.664	-0.000598704
296.2000	1.50197	279.684	-0.000595612
296.0000	1.51474	279.712	-0.000593109
295.8000	1.53958	279.735	-0.000591314
295.6000	1.51176	279.768	-0.000587092
295.4000	1.50753	279.796	-0.000583776
295.2000	1.52825	279.834	-0.000578746
295.0000	1.51332	279.855	-0.000576269
294.8000	1.52998	279.876	-0.000574712
294.6000	1.53859	279.907	-0.000570862
294.4000	1.4879	279.931	-0.000568344
294.2000	1.48955	279.958	-0.000565954
294.0000	1.52576	279.983	-0.000563456
293.8000	1.53607	280.003	-0.000559906
293.6000	1.52257	280.025	-0.000556529
293.4000	1.50983	280.049	-0.000555074
293.2000	1.51172	280.075	-0.000552063
293.0000	1.52027	280.09	-0.000550359
292.8000	1.51029	280.088	-0.000551209
292.6000	1.52036	280.096	-0.000549377
292.4000	1.49808	280.095	-0.000549947
292.2000	1.48812	280.08	-0.000553136
292.0000	1.5088	280.057	-0.000554443
291.8000	1.50628	280.034	-0.000556885
291.6000	1.54047	280.004	-0.000559423
291.4000	1.52663	279.97	-0.000563553
291.2000	1.53046	279.953	-0.000564326
291.0000	1.5252	279.927	-0.000566411
290.8000	1.54896	279.909	-0.000568954
290.6000	1.55708	279.913	-0.000568176
290.4000	1.54096	279.919	-0.000566294
290.2000	1.52555	279.943	-0.000564128
290.0000	1.52064	279.992	-0.000559113
289.8000	1.51043	280.048	-0.000552887
289.6000	1.50379	280.115	-0.000546122
289.4000	1.51718	280.187	-0.000537018
289.2000	1.53104	280.268	-0.000527924
289.0000	1.50882	280.342	-0.000519958
288.8000	1.528	280.43	-0.000508082
288.6000	1.58171	280.513	-0.000497767
288.4000	1.6045	280.585	-0.000488963
288.2000	1.60783	280.651	-0.000480581
288.0000	1.62658	280.7	-0.000472585
287.8000	1.61221	280.752	-0.000467346
287.6000	1.60814	280.803	-0.000461563
287.4000	1.64053	280.853	-0.000454803
287.2000	1.63652	280.89	-0.000451996
287.0000	1.61694	280.931	-0.00044514
286.8000	1.58822	280.96	-0.000441889
286.6000	1.59159	281.005	-0.000435577
286.4000	1.58907	281.064	-0.000428406
286.2000	1.58999	281.12	-0.000420466
286.0000	1.6123	281.168	-0.00041422
285.8000	1.58848	281.218	-0.000408279
285.6000	1.59292	281.256	-0.000402644
285.4000	1.55844	281.294	-0.000398204
285.2000	1.58327	281.334	-0.000392782
285.0000	1.6029	281.387	-0.000386505
284.8000	1.61621	281.419	-0.000381399
284.6000	1.61651	281.44	-0.000378092
284.4000	1.59575	281.475	-0.00037382
284.2000	1.565	281.508	-0.000373372
284.0000	1.54554	281.546	-0.000369019
283.8000	1.54751	281.586	-0.00036292
283.6000	1.5233	281.638	-0.000357503
283.4000	1.47572	281.684	-0.000351761
283.2000	1.46031	281.728	-0.000347509
283.0000	1.46783	281.77	-0.000343129
282.8000	1.47932	281.825	-0.000335363
282.6000	1.4841	281.875	-0.000329773
282.4000	1.50154	281.923	-0.00032432
282.2000	1.5328	281.96	-0.000319
282.0000	1.55031	282.006	-0.000312002
281.8000	1.54258	282.056	-0.000306844
281.6000	1.55247	282.104	-0.000301692
281.4000	1.57552	282.154	-0.000296824
281.2000	1.59492	282.194	-0.000290156
281.0000	1.62046	282.24	-0.000285288
280.8000	1.61325	282.294	-0.000278529
280.6000	1.59505	282.343	-0.000271693
280.4000	1.59619	282.397	-0.000265071
280.2000	1.62909	282.453	-0.000259013
280.0000	1.62489	282.492	-0.000254318
279.8000	1.58949	282.535	-0.000249456
279.6000	1.56497	282.575	-0.000244369
279.4000	1.55358	282.615	-0.000240097
279.2000	1.58949	282.654	-0.000234731
279.0000	1.62431	282.703	-0.000228434
278.8000	1.62211	282.775	-0.000219589
278.6000	1.59677	282.821	-0.000214818
278.4000	1.63023	282.88	-0.000207891
278.2000	1.67537	282.948	-0.000198212
278.0000	1.70566	283.022	-0.000190521
277.8000	1.6994	283.092	-0.000181951
277.6000	1.68571	283.166	-0.000174459
277.4000	1.66621	283.226	-0.000168701
277.2000	1.67214	283.271	-0.000163091
277.0000	1.66527	283.316	-0.000159622
276.8000	1.64227	283.367	-0.000152593
276.6000	1.61424	283.414	-0.000149572
276.4000	1.58633	283.459	-0.000144989
276.2000	1.5403	283.511	-0.000139089
276.0000	1.49302	283.575	-0.000133153
275.8000	1.47438	283.646	-0.00012589
275.6000	1.4657	283.726	-0.000116094
275.4000	1.49214	283.79	-0.000107931
275.2000	1.50847	283.845	-0.000102432
275.0000	1.50622	283.901	-9.50216E-005
274.8000	1.51461	283.968	-8.72447E-005
274.6000	1.53895	284.018	-8.09275E-005
274.4000	1.56674	284.08	-7.41984E-005
274.2000	1.53399	284.154	-6.6625E-005
274.0000	1.50566	284.217	-5.84208E-005
273.8000	1.49025	284.271	-5.37771E-005
273.6000	1.46829	284.35	-4.63562E-005
273.4000	1.45047	284.431	-3.67533E-005
273.2000	1.43878	284.505	-2.90324E-005
273.0000	1.46454	284.595	-1.88751E-005
272.8000	1.49649	284.675	-7.99052E-006
272.6000	1.55198	284.729	-2.56856E-006
272.4000	1.57491	284.789	6.39343E-006
272.2000	1.58562	284.852	1.16933E-005
272.0000	1.57886	284.909	1.82088E-005
271.8000	1.5931	284.969	2.683E-005
271.6000	1.64362	285.039	3.42255E-005
271.4000	1.65323	285.115	4.23584E-005
271.2000	1.61945	285.185	5.11169E-005
271.0000	1.56323	285.262	5.86955E-005
270.8000	1.57602	285.339	6.73523E-005
270.6000	1.59365	285.424	7.8186E-005
270.4000	1.58354	285.544	8.98743E-005
270.2000	1.57422	285.674	0.000105199
270.0000	1.53919	285.777	0.000115026
269.8000	1.51334	285.876	0.00012532
269.6000	1.52987	285.959	0.000137238
269.4000	1.54959	286.07	0.000149002
269.2000	1.58031	286.197	0.000163127
269.0000	1.58724	286.329	0.000179123
268.8000	1.59876	286.455	0.000193298
268.6000	1.61467	286.546	0.000203613
268.4000	1.63287	286.67	0.00021877
268.2000	1.64532	286.784	0.000230479
268.0000	1.6246	286.919	0.000244451
267.8000	1.63393	287.047	0.000261103
267.6000	1.61062	287.18	0.000273931
267.4000	1.53898	287.309	0.000288676
267.2000	1.54401	287.445	0.000301697
267.0000	1.5276	287.569	0.000313878
266.8000	1.5446	287.691	0.000328995
266.6000	1.56418	287.819	0.000343811
266.4000	1.53459	287.953	0.000358404
266.2000	1.52948	288.102	0.000376673
266.0000	1.5391	288.239	0.000392034
265.8000	1.56775	288.382	0.000409602
265.6000	1.56881	288.511	0.000424566
265.4000	1.58139	288.632	0.000440231
265.2000	1.5705	288.793	0.000460139
265.0000	1.55873	288.943	0.000477361
264.8000	1.58861	289.113	0.000497884
264.6000	1.60722	289.283	0.000520686
264.4000	1.59537	289.427	0.000536397
264.2000	1.57193	289.566	0.000551092
264.0000	1.56787	289.712	0.000570231
263.8000	1.5537	289.874	0.000588028
263.6000	1.55024	290.03	0.000605621
263.4000	1.57499	290.189	0.000624934
263.2000	1.50276	290.35	0.000641846
263.0000	1.48306	290.5	0.000658808
262.8000	1.50368	290.682	0.000679235
262.6000	1.49022	290.848	0.000696686
262.4000	1.44833	291.025	0.000717473
262.2000	1.44876	291.2	0.000735769
262.0000	1.43017	291.354	0.000753713
261.8000	1.38395	291.506	0.000769816
261.6000	1.38239	291.66	0.000786509
261.4000	1.4191	291.831	0.000806585
261.2000	1.42514	291.979	0.000822952
261.0000	1.40968	292.134	0.000839874
260.8000	1.41265	292.275	0.000855982
260.6000	1.39714	292.425	0.000872086
260.4000	1.43562	292.607	0.00089384
260.2000	1.43994	292.78	0.000911769
260.0000	1.42255	292.946	0.000930379
259.8000	1.38482	293.11	0.000948354
259.6000	1.34963	293.289	0.00096788
259.4000	1.35145	293.449	0.000985291
259.2000	1.36312	293.625	0.00100642
259.0000	1.36261	293.813	0.00102516
258.8000	1.31888	293.953	0.00104126
258.6000	1.26431	294.108	0.00105756
258.4000	1.27537	294.264	0.00107428
258.2000	1.29774	294.433	0.00109419
258.0000	1.30357	294.573	0.00110848
257.8000	1.27596	294.729	0.00112622
257.6000	1.25928	294.892	0.00114435
257.4000	1.25112	295.053	0.00116205
257.2000	1.24287	295.231	0.0011833
257.0000	1.31135	295.414	0.00120424
256.8000	1.3514	295.602	0.00122725
256.6000	1.37103	295.778	0.00124961
256.4000	1.39955	295.942	0.00126735
256.2000	1.45116	296.091	0.00128556
256.0000	1.52851	296.256	0.00130547
255.8000	1.55698	296.392	0.00132305
255.6000	1.59307	296.531	0.00134023
255.4000	1.60679	296.678	0.00135799
255.2000	1.60362	296.801	0.00137515
255.0000	1.57859	296.929	0.00139038
254.8000	1.52781	297.063	0.00140778
254.6000	1.47415	297.198	0.00142456
254.4000	1.39346	297.349	0.00144111
254.2000	1.36434	297.482	0.00145808
254.0000	1.31962	297.621	0.00147369
253.8000	1.27158	297.75	0.00149062
253.6000	1.23078	297.87	0.0015041
253.4000	1.23435	298.002	0.00151819
253.2000	1.23635	298.105	0.00153086
253.0000	1.29087	298.225	0.00154575
252.8000	1.3266	298.338	0.00155945
252.6000	1.3418	298.486	0.00157731
252.4000	1.365	298.62	0.00159296
252.2000	1.36962	298.745	0.00160832
252.0000	1.39469	298.901	0.00162504
251.8000	1.42873	299.046	0.00164128
251.6000	1.39785	299.193	0.00165826
251.4000	1.40253	299.347	0.00167462
251.2000	1.41212	299.493	0.00169061
251.0000	1.43758	299.644	0.00170818
250.8000	1.42736	299.774	0.00172035
250.6000	1.46386	299.914	0.00173757
250.4000	1.47334	300.054	0.00175283
250.2000	1.45178	300.2	0.00176818
250.0000	1.46547	300.355	0.00178591
249.8000	1.49317	300.515	0.00180448
249.6000	1.43789	300.655	0.00181841
249.4000	1.35843	300.784	0.0018313
249.2000	1.34856	300.911	0.00184713
249.0000	1.37312	301.042	0.00186222
248.8000	1.34261	301.189	0.00187867
248.6000	1.36648	301.314	0.00189169
248.4000	1.36336	301.434	0.00190827
248.2000	1.34752	301.554	0.00191931
248.0000	1.38101	301.695	0.00193704
247.8000	1.42149	301.848	0.00195387
247.6000	1.43566	301.976	0.00196969
247.4000	1.4338	302.137	0.00198581
247.2000	1.44649	302.303	0.00200629
247.0000	1.41722	302.452	0.00202193
246.8000	1.40208	302.613	0.00204057
246.6000	1.34781	302.785	0.00205748
246.4000	1.36895	302.958	0.00207813
246.2000	1.34556	303.148	0.0020989
246.0000	1.37113	303.353	0.00212258
245.8000	1.33862	303.564	0.00214701
245.6000	1.29375	303.739	0.00216583
245.4000	1.25652	303.951	0.00218951
245.2000	1.24538	304.156	0.0022131
245.0000	1.24893	304.336	0.00223341
244.8000	1.22353	304.513	0.00225492
244.6000	1.20499	304.679	0.00227406
244.4000	1.18236	304.842	0.00229312
244.2000	1.17551	305.003	0.00231038
244.0000	1.13592	305.176	0.00233065
243.8000	1.1321	305.341	0.00235021
243.6000	1.17148	305.513	0.0023698
243.4000	1.15729	305.711	0.00239218
243.2000	1.1875	305.916	0.00241559
243.0000	1.18039	306.104	0.00243766
242.8000	1.13807	306.299	0.00246084
242.6000	1.11822	306.505	0.0024819
242.4000	1.14397	306.715	0.00250658
242.2000	1.14191	306.934	0.0025286
242.0000	1.16313	307.155	0.0025536
241.8000	1.13053	307.375	0.00257855
241.6000	1.06768	307.594	0.00260352
241.4000	1.08094	307.821	0.00262839
241.2000	1.08957	308.055	0.00265502
241.0000	1.08681	308.309	0.00268418
240.8000	1.04635	308.557	0.0027111
240.6000	1.01304	308.789	0.00273768
240.4000	0.906346	309.038	0.00276468
240.2000	0.862037	309.302	0.00279354
240.0000	0.860891	309.555	0.00282129
